! Initial file:   O:\a) Research area\01 - Batteries & Supercaps\EES Research LINES\RL2018001 Advanced Cathodes\Results\Maha-Joseba\Automation_paper\XRD\LFP_06_160-15\MI-JO_LFP_221110_06.xy
! Initial format:   1
! WAVE (A):      1.54060     1.54060     1.00000
! REM : data have been multiplied by     1.0000
! X_data : 2 Theta (deg.)                                                                                                                                                                                                                                                  
! Y_data : Intensity (arb. units)                                                                                                                                                                                                                                          
!     X         Y
!--------------------------------------------------------------------------------
    10.0000      104.20000
    10.0105      103.10000
    10.0210      103.10000
    10.0316       94.00000
    10.0421       96.00000
    10.0526       98.00000
    10.0631      108.30000
    10.0737       86.80000
    10.0842       89.90000
    10.0947      104.20000
    10.1052       82.70000
    10.1157       92.90000
    10.1263       98.00000
    10.1368       94.00000
    10.1473       97.00000
    10.1578       81.70000
    10.1684      109.30000
    10.1789       97.00000
    10.1894       85.80000
    10.1999       77.60000
    10.2105      113.40000
    10.2210       91.90000
    10.2315       90.90000
    10.2420      104.20000
    10.2525       77.60000
    10.2631       66.40000
    10.2736      105.20000
    10.2841      100.10001
    10.2946      110.30000
    10.3052       88.80000
    10.3157      101.10001
    10.3262      107.20000
    10.3367       96.00000
    10.3472       96.00000
    10.3578      105.20000
    10.3683       97.00000
    10.3788       92.90000
    10.3893       88.80000
    10.3999      100.10001
    10.4104       92.90000
    10.4209      100.10001
    10.4314       97.00000
    10.4420      103.10000
    10.4525       90.90000
    10.4630       77.60000
    10.4735      106.20000
    10.4840      105.20000
    10.4946       87.80000
    10.5051       82.70000
    10.5156      108.30000
    10.5261       68.40000
    10.5367       94.00000
    10.5472       98.00000
    10.5577       95.00000
    10.5682       79.70000
    10.5787       99.10000
    10.5893       97.00000
    10.5998       91.90000
    10.6103       79.70000
    10.6208       86.80000
    10.6314       70.50000
    10.6419      105.20000
    10.6524       92.90000
    10.6629       94.00000
    10.6734       87.80000
    10.6840       95.00000
    10.6945      110.30000
    10.7050      105.20000
    10.7155       92.90000
    10.7261       89.90000
    10.7366       95.00000
    10.7471      100.10001
    10.7576       98.00000
    10.7682      105.20000
    10.7787       92.90000
    10.7892      101.10001
    10.7997       84.80000
    10.8102       78.60000
    10.8208      102.10000
    10.8313       64.30000
    10.8418       81.70000
    10.8523       94.00000
    10.8629       83.70000
    10.8734       73.50000
    10.8839       68.40000
    10.8944       79.70000
    10.9049       95.00000
    10.9155       74.60000
    10.9260      110.30000
    10.9365      106.20000
    10.9470       88.80000
    10.9576       77.60000
    10.9681       73.50000
    10.9786       77.60000
    10.9891       89.90000
    10.9996       88.80000
    11.0102       80.70000
    11.0207       92.90000
    11.0312       90.90000
    11.0417       89.90000
    11.0523       92.90000
    11.0628       74.60000
    11.0733       98.00000
    11.0838       77.60000
    11.0944       78.60000
    11.1049       84.80000
    11.1154       89.90000
    11.1259       92.90000
    11.1364       90.90000
    11.1470       91.90000
    11.1575       88.80000
    11.1680       81.70000
    11.1785       92.90000
    11.1891       72.50000
    11.1996       82.70000
    11.2101       84.80000
    11.2206       98.00000
    11.2311       78.60000
    11.2417       91.90000
    11.2522       89.90000
    11.2627       99.10000
    11.2732       82.70000
    11.2838       78.60000
    11.2943       75.60000
    11.3048       78.60000
    11.3153       84.80000
    11.3259       78.60000
    11.3364       81.70000
    11.3469       91.90000
    11.3574       83.70000
    11.3679       78.60000
    11.3785       69.40000
    11.3890       70.50000
    11.3995       77.60000
    11.4100       84.80000
    11.4206       83.70000
    11.4311       69.40000
    11.4416       82.70000
    11.4521       78.60000
    11.4626       88.80000
    11.4732       88.80000
    11.4837       67.40000
    11.4942       74.60000
    11.5047       77.60000
    11.5153       85.80000
    11.5258       64.30000
    11.5363       77.60000
    11.5468       72.50000
    11.5573      104.20000
    11.5679       89.90000
    11.5784       92.90000
    11.5889       95.00000
    11.5994       72.50000
    11.6100       71.50000
    11.6205       80.70000
    11.6310       82.70000
    11.6415       94.00000
    11.6521       83.70000
    11.6626       89.90000
    11.6731       84.80000
    11.6836       74.60000
    11.6941       98.00000
    11.7047       78.60000
    11.7152       79.70000
    11.7257       69.40000
    11.7362       83.70000
    11.7468       77.60000
    11.7573       87.80000
    11.7678       77.60000
    11.7783       79.70000
    11.7888       92.90000
    11.7994       77.60000
    11.8099       89.90000
    11.8204       66.40000
    11.8309       77.60000
    11.8415       71.50000
    11.8520       80.70000
    11.8625       76.60000
    11.8730       85.80000
    11.8835       76.60000
    11.8941       87.80000
    11.9046       81.70000
    11.9151       84.80000
    11.9256       70.50000
    11.9362       57.20000
    11.9467      102.10000
    11.9572       78.60000
    11.9677       74.60000
    11.9783       81.70000
    11.9888       76.60000
    11.9993       79.70000
    12.0098       78.60000
    12.0203       84.80000
    12.0309       59.20000
    12.0414       82.70000
    12.0519       71.50000
    12.0624       72.50000
    12.0730       69.40000
    12.0835       83.70000
    12.0940       84.80000
    12.1045       66.40000
    12.1150       83.70000
    12.1256       80.70000
    12.1361       89.90000
    12.1466       77.60000
    12.1571       66.40000
    12.1677       71.50000
    12.1782       72.50000
    12.1887       69.40000
    12.1992       64.30000
    12.2098       72.50000
    12.2203       87.80000
    12.2308       72.50000
    12.2413       63.30000
    12.2518       64.30000
    12.2624       60.30000
    12.2729       70.50000
    12.2834       72.50000
    12.2939       90.90000
    12.3045       70.50000
    12.3150       70.50000
    12.3255       66.40000
    12.3360       70.50000
    12.3465       73.50000
    12.3571       57.20000
    12.3676       63.30000
    12.3781       77.60000
    12.3886       74.60000
    12.3992       80.70000
    12.4097       72.50000
    12.4202       69.40000
    12.4307       75.60000
    12.4412       62.30000
    12.4518       61.30000
    12.4623       61.30000
    12.4728       74.60000
    12.4833       76.60000
    12.4939       78.60000
    12.5044       83.70000
    12.5149       82.70000
    12.5254       77.60000
    12.5360       79.70000
    12.5465       59.20000
    12.5570       62.30000
    12.5675       85.80000
    12.5780       67.40000
    12.5886       73.50000
    12.5991       70.50000
    12.6096       73.50000
    12.6201       65.40000
    12.6307       79.70000
    12.6412       66.40000
    12.6517       71.50000
    12.6622       80.70000
    12.6727       79.70000
    12.6833       84.80000
    12.6938       50.00000
    12.7043       73.50000
    12.7148       78.60000
    12.7254       52.10000
    12.7359       66.40000
    12.7464       73.50000
    12.7569       75.60000
    12.7674       69.40000
    12.7780       67.40000
    12.7885       76.60000
    12.7990       61.30000
    12.8095       85.80000
    12.8201       70.50000
    12.8306       59.20000
    12.8411       70.50000
    12.8516       63.30000
    12.8622       75.60000
    12.8727       84.80000
    12.8832       62.30000
    12.8937       75.60000
    12.9042       78.60000
    12.9148       54.10000
    12.9253       73.50000
    12.9358       72.50000
    12.9463       76.60000
    12.9569       78.60000
    12.9674       55.10000
    12.9779       75.60000
    12.9884       65.40000
    12.9989       76.60000
    13.0095       62.30000
    13.0200       84.80000
    13.0305       69.40000
    13.0410       69.40000
    13.0516       69.40000
    13.0621       78.60000
    13.0726       81.70000
    13.0831       71.50000
    13.0937       73.50000
    13.1042       69.40000
    13.1147       72.50000
    13.1252       79.70000
    13.1357       63.30000
    13.1463       65.40000
    13.1568       75.60000
    13.1673       87.80000
    13.1778       80.70000
    13.1884       85.80000
    13.1989       76.60000
    13.2094       68.40000
    13.2199       78.60000
    13.2304       62.30000
    13.2410       66.40000
    13.2515       69.40000
    13.2620       64.30000
    13.2725       72.50000
    13.2831       56.20000
    13.2936       62.30000
    13.3041       75.60000
    13.3146       63.30000
    13.3251       60.30000
    13.3357       77.60000
    13.3462       73.50000
    13.3567       68.40000
    13.3672       62.30000
    13.3778       63.30000
    13.3883       63.30000
    13.3988       67.40000
    13.4093       69.40000
    13.4199       71.50000
    13.4304       56.20000
    13.4409       80.70000
    13.4514       52.10000
    13.4619       63.30000
    13.4725       65.40000
    13.4830       67.40000
    13.4935       62.30000
    13.5040       64.30000
    13.5146       69.40000
    13.5251       80.70000
    13.5356       66.40000
    13.5461       68.40000
    13.5566       71.50000
    13.5672       73.50000
    13.5777       68.40000
    13.5882       71.50000
    13.5987       84.80000
    13.6093       72.50000
    13.6198       59.20000
    13.6303       67.40000
    13.6408       55.10000
    13.6514       71.50000
    13.6619       63.30000
    13.6724       57.20000
    13.6829       73.50000
    13.6934       65.40000
    13.7040       63.30000
    13.7145       53.10000
    13.7250       53.10000
    13.7355       58.20000
    13.7461       63.30000
    13.7566       76.60000
    13.7671       77.60000
    13.7776       60.30000
    13.7881       57.20000
    13.7987       51.10000
    13.8092       78.60000
    13.8197       62.30000
    13.8302       78.60000
    13.8408       68.40000
    13.8513       57.20000
    13.8618       59.20000
    13.8723       72.50000
    13.8828       48.00000
    13.8934       74.60000
    13.9039       56.20000
    13.9144       59.20000
    13.9249       54.10000
    13.9355       65.40000
    13.9460       64.30000
    13.9565       72.50000
    13.9670       58.20000
    13.9776       58.20000
    13.9881       63.30000
    13.9986       56.20000
    14.0091       51.10000
    14.0196       64.30000
    14.0302       60.30000
    14.0407       84.80000
    14.0512       65.40000
    14.0617       62.30000
    14.0723       62.30000
    14.0828       76.60000
    14.0933       60.30000
    14.1038       64.30000
    14.1143       71.50000
    14.1249       57.20000
    14.1354       78.60000
    14.1459       70.50000
    14.1564       62.30000
    14.1670       75.60000
    14.1775       63.30000
    14.1880       55.10000
    14.1985       46.00000
    14.2090       52.10000
    14.2196       61.30000
    14.2301       56.20000
    14.2406       57.20000
    14.2511       46.00000
    14.2617       67.40000
    14.2722       69.40000
    14.2827       69.40000
    14.2932       65.40000
    14.3038       77.60000
    14.3143       78.60000
    14.3248       58.20000
    14.3353       59.20000
    14.3458       58.20000
    14.3564       61.30000
    14.3669       49.00000
    14.3774       70.50000
    14.3879       58.20000
    14.3985       68.40000
    14.4090       57.20000
    14.4195       60.30000
    14.4300       61.30000
    14.4405       61.30000
    14.4511       65.40000
    14.4616       55.10000
    14.4721       66.40000
    14.4826       73.50000
    14.4932       71.50000
    14.5037       70.50000
    14.5142       60.30000
    14.5247       55.10000
    14.5353       57.20000
    14.5458       57.20000
    14.5563       65.40000
    14.5668       59.20000
    14.5773       75.60000
    14.5879       62.30000
    14.5984       63.30000
    14.6089       55.10000
    14.6194       75.60000
    14.6300       62.30000
    14.6405       74.60000
    14.6510       58.20000
    14.6615       60.30000
    14.6720       49.00000
    14.6826       78.60000
    14.6931       57.20000
    14.7036       51.10000
    14.7141       56.20000
    14.7247       56.20000
    14.7352       53.10000
    14.7457       57.20000
    14.7562       65.40000
    14.7667       55.10000
    14.7773       67.40000
    14.7878       47.00000
    14.7983       55.10000
    14.8088       68.40000
    14.8194       51.10000
    14.8299       48.00000
    14.8404       43.90000
    14.8509       64.30000
    14.8615       58.20000
    14.8720       55.10000
    14.8825       51.10000
    14.8930       69.40000
    14.9035       72.50000
    14.9141       48.00000
    14.9246       59.20000
    14.9351       61.30000
    14.9456       57.20000
    14.9562       61.30000
    14.9667       62.30000
    14.9772       50.00000
    14.9877       48.00000
    14.9982       54.10000
    15.0088       54.10000
    15.0193       68.40000
    15.0298       50.00000
    15.0403       67.40000
    15.0509       64.30000
    15.0614       55.10000
    15.0719       52.10000
    15.0824       69.40000
    15.0929       62.30000
    15.1035       64.30000
    15.1140       55.10000
    15.1245       61.30000
    15.1350       55.10000
    15.1456       61.30000
    15.1561       64.30000
    15.1666       70.50000
    15.1771       56.20000
    15.1877       52.10000
    15.1982       50.00000
    15.2087       63.30000
    15.2192       48.00000
    15.2297       53.10000
    15.2403       66.40000
    15.2508       53.10000
    15.2613       47.00000
    15.2718       59.20000
    15.2824       49.00000
    15.2929       58.20000
    15.3034       52.10000
    15.3139       64.30000
    15.3244       52.10000
    15.3350       60.30000
    15.3455       69.40000
    15.3560       58.20000
    15.3665       71.50000
    15.3771       59.20000
    15.3876       55.10000
    15.3981       51.10000
    15.4086       60.30000
    15.4192       63.30000
    15.4297       59.20000
    15.4402       59.20000
    15.4507       64.30000
    15.4612       56.20000
    15.4718       56.20000
    15.4823       50.00000
    15.4928       61.30000
    15.5033       54.10000
    15.5139       63.30000
    15.5244       44.90000
    15.5349       47.00000
    15.5454       60.30000
    15.5559       44.90000
    15.5665       58.20000
    15.5770       67.40000
    15.5875       60.30000
    15.5980       47.00000
    15.6086       51.10000
    15.6191       61.30000
    15.6296       56.20000
    15.6401       58.20000
    15.6506       48.00000
    15.6612       49.00000
    15.6717       48.00000
    15.6822       57.20000
    15.6927       51.10000
    15.7033       60.30000
    15.7138       61.30000
    15.7243       62.30000
    15.7348       52.10000
    15.7454       60.30000
    15.7559       53.10000
    15.7664       62.30000
    15.7769       52.10000
    15.7874       52.10000
    15.7980       59.20000
    15.8085       56.20000
    15.8190       61.30000
    15.8295       48.00000
    15.8401       51.10000
    15.8506       64.30000
    15.8611       62.30000
    15.8716       62.30000
    15.8821       67.40000
    15.8927       65.40000
    15.9032       58.20000
    15.9137       71.50000
    15.9242       56.20000
    15.9348       43.90000
    15.9453       60.30000
    15.9558       82.70000
    15.9663       65.40000
    15.9768       44.90000
    15.9874       54.10000
    15.9979       56.20000
    16.0084       47.00000
    16.0189       65.40000
    16.0295       43.90000
    16.0400       61.30000
    16.0505       59.20000
    16.0610       58.20000
    16.0716       57.20000
    16.0821       61.30000
    16.0926       64.30000
    16.1031       61.30000
    16.1136       49.00000
    16.1242       49.00000
    16.1347       60.30000
    16.1452       50.00000
    16.1557       59.20000
    16.1663       56.20000
    16.1768       50.00000
    16.1873       50.00000
    16.1978       57.20000
    16.2083       69.40000
    16.2189       64.30000
    16.2294       55.10000
    16.2399       52.10000
    16.2504       58.20000
    16.2610       54.10000
    16.2715       62.30000
    16.2820       51.10000
    16.2925       61.30000
    16.3031       68.40000
    16.3136       55.10000
    16.3241       59.20000
    16.3346       60.30000
    16.3451       65.40000
    16.3557       60.30000
    16.3662       47.00000
    16.3767       44.90000
    16.3872       48.00000
    16.3978       50.00000
    16.4083       61.30000
    16.4188       58.20000
    16.4293       66.40000
    16.4398       46.00000
    16.4504       67.40000
    16.4609       65.40000
    16.4714       53.10000
    16.4819       58.20000
    16.4925       53.10000
    16.5030       55.10000
    16.5135       70.50000
    16.5240       58.20000
    16.5345       57.20000
    16.5451       68.40000
    16.5556       58.20000
    16.5661       50.00000
    16.5766       63.30000
    16.5872       62.30000
    16.5977       47.00000
    16.6082       66.40000
    16.6187       52.10000
    16.6293       43.90000
    16.6398       53.10000
    16.6503       47.00000
    16.6608       46.00000
    16.6713       49.00000
    16.6819       59.20000
    16.6924       56.20000
    16.7029       50.00000
    16.7134       66.40000
    16.7240       69.40000
    16.7345       48.00000
    16.7450       54.10000
    16.7555       69.40000
    16.7660       61.30000
    16.7766       46.00000
    16.7871       57.20000
    16.7976       54.10000
    16.8081       73.50000
    16.8187       70.50000
    16.8292       61.30000
    16.8397       74.60000
    16.8502       57.20000
    16.8607       64.30000
    16.8713       71.50000
    16.8818       81.70000
    16.8923       67.40000
    16.9028       85.80000
    16.9134       75.60000
    16.9239       94.00000
    16.9344       86.80000
    16.9449      103.10000
    16.9555       97.00000
    16.9660       88.80000
    16.9765       94.00000
    16.9870      113.40000
    16.9975      124.60000
    17.0081      118.50000
    17.0186      149.10001
    17.0291      131.70000
    17.0396      176.70000
    17.0502      188.90001
    17.0607      239.00000
    17.0712      271.70001
    17.0817      290.00000
    17.0922      368.70001
    17.1028      371.70001
    17.1133      434.00000
    17.1238      540.20001
    17.1343      610.70001
    17.1449      631.10004
    17.1554      668.90002
    17.1659      755.70001
    17.1764      753.70001
    17.1870      767.00000
    17.1975      784.29999
    17.2080      706.70001
    17.2185      697.50000
    17.2290      594.40002
    17.2396      543.29999
    17.2501      507.60001
    17.2606      426.89999
    17.2711      356.39999
    17.2817      277.80002
    17.2922      289.00000
    17.3027      203.20001
    17.3132      198.10001
    17.3237      177.70000
    17.3343      156.30000
    17.3448      157.30000
    17.3553      129.70000
    17.3658      120.50000
    17.3764      102.10000
    17.3869      100.10001
    17.3974       88.80000
    17.4079       82.70000
