! Initial file:   O:\a) Research area\01 - Batteries & Supercaps\EES Research LINES\RL2018001 Advanced Cathodes\Results\Maha-Joseba\Automation_paper\XRD\LFP_05_180-15\MI-JO_LFP_221110_05.xy
! Initial format:   1
! WAVE (A):      1.54060     1.54060     1.00000
! REM : data have been multiplied by     1.0000
! X_data : 2 Theta (deg.)                                                                                                                                                                                                                                                  
! Y_data : Intensity (arb. units)                                                                                                                                                                                                                                          
!     X         Y
!--------------------------------------------------------------------------------
    10.0000       84.80000
    10.0105       89.90000
    10.0210       96.00000
    10.0316       89.90000
    10.0421      102.10001
    10.0526      101.10001
    10.0631      103.10000
    10.0737      107.20000
    10.0842      101.10001
    10.0947       87.80000
    10.1052       84.80000
    10.1157       98.00000
    10.1263       99.10000
    10.1368      107.20000
    10.1473       96.00000
    10.1578      110.30000
    10.1684       74.60000
    10.1789       97.00000
    10.1894      108.30000
    10.1999       95.00000
    10.2105       98.00000
    10.2210       84.80000
    10.2315       87.80000
    10.2420       77.60001
    10.2525       87.80000
    10.2631      104.20000
    10.2736       97.00000
    10.2841      106.20000
    10.2946      113.39999
    10.3052       75.60000
    10.3157      103.10000
    10.3262       78.60000
    10.3367       95.00000
    10.3472       85.80000
    10.3578       83.70000
    10.3683      103.10000
    10.3788      103.10000
    10.3893       95.00000
    10.3999       88.80000
    10.4104      104.20000
    10.4209       89.90000
    10.4314       97.00000
    10.4420       94.00000
    10.4525       96.00000
    10.4630       94.00000
    10.4735       87.80000
    10.4840       86.80000
    10.4946       90.90000
    10.5051       92.90000
    10.5156       99.10000
    10.5261       72.50000
    10.5367      102.10001
    10.5472       88.80000
    10.5577       90.90000
    10.5682       86.80000
    10.5787       76.60000
    10.5893       98.00000
    10.5998       72.50000
    10.6103       65.40000
    10.6208       81.70000
    10.6314       90.90000
    10.6419       78.60000
    10.6524       88.80000
    10.6629       75.60000
    10.6734       95.00000
    10.6840       97.00000
    10.6945       71.50000
    10.7050       95.00000
    10.7155       90.90000
    10.7261       88.80000
    10.7366       83.70000
    10.7471       91.90000
    10.7576       79.70000
    10.7682       90.90000
    10.7787       90.90000
    10.7892       92.90000
    10.7997       87.80000
    10.8102       74.60000
    10.8208       91.90000
    10.8313      100.10001
    10.8418      104.20000
    10.8523       81.70000
    10.8629       98.00000
    10.8734       64.30000
    10.8839       71.50000
    10.8944       90.90000
    10.9049       87.80000
    10.9155       88.80000
    10.9260       82.70000
    10.9365       97.00000
    10.9470      103.10000
    10.9576       92.90000
    10.9681       97.00000
    10.9786       86.80000
    10.9891       73.50000
    10.9996       87.80000
    11.0102       95.00000
    11.0207       85.80000
    11.0312      103.10000
    11.0417       71.50000
    11.0523       77.60001
    11.0628       77.60001
    11.0733       85.80000
    11.0838       65.40000
    11.0944       79.70000
    11.1049      102.10001
    11.1154       68.40000
    11.1259       82.70000
    11.1364       83.70000
    11.1470       80.70000
    11.1575       85.80000
    11.1680       69.40000
    11.1785       81.70000
    11.1891      100.10001
    11.1996       87.80000
    11.2101       74.60000
    11.2206       62.30000
    11.2311       66.39999
    11.2417       66.39999
    11.2522       92.90000
    11.2627       94.00000
    11.2732       79.70000
    11.2838       89.90000
    11.2943       80.70000
    11.3048       88.80000
    11.3153       83.70000
    11.3259       70.50000
    11.3364       85.80000
    11.3469       98.00000
    11.3574       76.60000
    11.3679       91.90000
    11.3785       94.00000
    11.3890       83.70000
    11.3995       77.60001
    11.4100       90.90000
    11.4206       63.30000
    11.4311       71.50000
    11.4416       77.60001
    11.4521       75.60000
    11.4626       75.60000
    11.4732       80.70000
    11.4837       81.70000
    11.4942       77.60001
    11.5047       75.60000
    11.5153       71.50000
    11.5258       89.90000
    11.5363       73.50000
    11.5468       88.80000
    11.5573       92.90000
    11.5679       78.60000
    11.5784       70.50000
    11.5889       79.70000
    11.5994       70.50000
    11.6100       74.60000
    11.6205       60.30000
    11.6310       73.50000
    11.6415       79.70000
    11.6521       65.40000
    11.6626       76.60000
    11.6731       72.50000
    11.6836       73.50000
    11.6941       89.90000
    11.7047       83.70000
    11.7152       84.80000
    11.7257       85.80000
    11.7362       77.60001
    11.7468       71.50000
    11.7573       70.50000
    11.7678       67.40000
    11.7783       86.80000
    11.7888       72.50000
    11.7994       71.50000
    11.8099       73.50000
    11.8204       84.80000
    11.8309       76.60000
    11.8415       70.50000
    11.8520       81.70000
    11.8625       80.70000
    11.8730       78.60000
    11.8835       74.60000
    11.8941       74.60000
    11.9046       81.70000
    11.9151       73.50000
    11.9256       85.80000
    11.9362       75.60000
    11.9467       90.90000
    11.9572       76.60000
    11.9677       80.70000
    11.9783       74.60000
    11.9888       71.50000
    11.9993       70.50000
    12.0098       71.50000
    12.0203       54.10000
    12.0309       69.40000
    12.0414       62.30000
    12.0519       78.60000
    12.0624       68.40000
    12.0730       80.70000
    12.0835       81.70000
    12.0940       62.30000
    12.1045       85.80000
    12.1150       70.50000
    12.1256       77.60001
    12.1361       76.60000
    12.1466       68.40000
    12.1571       74.60000
    12.1677       85.80000
    12.1782       83.70000
    12.1887       61.30000
    12.1992       64.30000
    12.2098       71.50000
    12.2203       71.50000
    12.2308       73.50000
    12.2413       77.60001
    12.2518       72.50000
    12.2624       79.70000
    12.2729       72.50000
    12.2834       76.60000
    12.2939       71.50000
    12.3045       71.50000
    12.3150       74.60000
    12.3255       77.60001
    12.3360       76.60000
    12.3465       60.30000
    12.3571       82.70000
    12.3676       77.60001
    12.3781       59.20000
    12.3886       63.30000
    12.3992       66.39999
    12.4097       63.30000
    12.4202       67.40000
    12.4307       62.30000
    12.4412       81.70000
    12.4518       76.60000
    12.4623       84.80000
    12.4728       63.30000
    12.4833       71.50000
    12.4939       63.30000
    12.5044       69.40000
    12.5149       75.60000
    12.5254       73.50000
    12.5360       70.50000
    12.5465       73.50000
    12.5570       79.70000
    12.5675       68.40000
    12.5780       77.60001
    12.5886       73.50000
    12.5991       73.50000
    12.6096       57.20000
    12.6201       59.20000
    12.6307       68.40000
    12.6412       70.50000
    12.6517       81.70000
    12.6622       79.70000
    12.6727       67.40000
    12.6833       80.70000
    12.6938       78.60000
    12.7043       57.20000
    12.7148       48.00000
    12.7254       69.40000
    12.7359       78.60000
    12.7464       72.50000
    12.7569       68.40000
    12.7674       62.30000
    12.7780       72.50000
    12.7885       70.50000
    12.7990       53.10000
    12.8095       59.20000
    12.8201       70.50000
    12.8306       64.30000
    12.8411       75.60000
    12.8516       73.50000
    12.8622       72.50000
    12.8727       60.30000
    12.8832       65.40000
    12.8937       68.40000
    12.9042       73.50000
    12.9148       74.60000
    12.9253       55.10000
    12.9358       68.40000
    12.9463       72.50000
    12.9569       66.39999
    12.9674       87.80000
    12.9779       67.40000
    12.9884       71.50000
    12.9989       68.40000
    13.0095       80.70000
    13.0200       74.60000
    13.0305       67.40000
    13.0410       77.60001
    13.0516       68.40000
    13.0621       72.50000
    13.0726       59.20000
    13.0831       78.60000
    13.0937       62.30000
    13.1042       83.70000
    13.1147       64.30000
    13.1252       64.30000
    13.1357       55.10000
    13.1463       58.20000
    13.1568       78.60000
    13.1673       62.30000
    13.1778       72.50000
    13.1884       69.40000
    13.1989       72.50000
    13.2094       64.30000
    13.2199       67.40000
    13.2304       71.50000
    13.2410       59.20000
    13.2515       69.40000
    13.2620       74.60000
    13.2725       75.60000
    13.2831       68.40000
    13.2936       67.40000
    13.3041       70.50000
    13.3146       65.40000
    13.3251       71.50000
    13.3357       56.20000
    13.3462       59.20000
    13.3567       77.60001
    13.3672       65.40000
    13.3778       59.20000
    13.3883       58.20000
    13.3988       75.60000
    13.4093       75.60000
    13.4199       69.40000
    13.4304       65.40000
    13.4409       66.39999
    13.4514       67.40000
    13.4619       64.30000
    13.4725       74.60000
    13.4830       73.50000
    13.4935       67.40000
    13.5040       60.30000
    13.5146       76.60000
    13.5251       69.40000
    13.5356       68.40000
    13.5461       83.70000
    13.5566       62.30000
    13.5672       55.10000
    13.5777       64.30000
    13.5882       55.10000
    13.5987       60.30000
    13.6093       72.50000
    13.6198       62.30000
    13.6303       63.30000
    13.6408       67.40000
    13.6514       59.20000
    13.6619       70.50000
    13.6724       47.00000
    13.6829       68.40000
    13.6934       62.30000
    13.7040       73.50000
    13.7145       61.30000
    13.7250       59.20000
    13.7355       67.40000
    13.7461       56.20000
    13.7566       59.20000
    13.7671       78.60000
    13.7776       72.50000
    13.7881       76.60000
    13.7987       53.10000
    13.8092       46.00000
    13.8197       64.30000
    13.8302       65.40000
    13.8408       53.10000
    13.8513       61.30000
    13.8618       52.10000
    13.8723       69.40000
    13.8828       69.40000
    13.8934       69.40000
    13.9039       72.50000
    13.9144       69.40000
    13.9249       71.50000
    13.9355       66.39999
    13.9460       54.10000
    13.9565       60.30000
    13.9670       64.30000
    13.9776       55.10000
    13.9881       63.30000
    13.9986       67.40000
    14.0091       53.10000
    14.0196       69.40000
    14.0302       69.40000
    14.0407       74.60000
    14.0512       58.20000
    14.0617       68.40000
    14.0723       67.40000
    14.0828       63.30000
    14.0933       61.30000
    14.1038       59.20000
    14.1143       65.40000
    14.1249       70.50000
    14.1354       50.00000
    14.1459       65.40000
    14.1564       90.90000
    14.1670       55.10000
    14.1775       60.30000
    14.1880       68.40000
    14.1985       66.39999
    14.2090       60.30000
    14.2196       59.20000
    14.2301       65.40000
    14.2406       70.50000
    14.2511       59.20000
    14.2617       53.10000
    14.2722       58.20000
    14.2827       65.40000
    14.2932       64.30000
    14.3038       61.30000
    14.3143       51.10000
    14.3248       50.00000
    14.3353       71.50000
    14.3458       50.00000
    14.3564       62.30000
    14.3669       52.10000
    14.3774       57.20000
    14.3879       57.20000
    14.3985       63.30000
    14.4090       66.39999
    14.4195       77.60001
    14.4300       68.40000
    14.4405       54.10000
    14.4511       54.10000
    14.4616       50.00000
    14.4721       66.39999
    14.4826       48.00000
    14.4932       67.40000
    14.5037       60.30000
    14.5142       55.10000
    14.5247       50.00000
    14.5353       61.30000
    14.5458       87.80000
    14.5563       62.30000
    14.5668       60.30000
    14.5773       47.00000
    14.5879       68.40000
    14.5984       57.20000
    14.6089       70.50000
    14.6194       58.20000
    14.6300       61.30000
    14.6405       56.20000
    14.6510       64.30000
    14.6615       61.30000
    14.6720       47.00000
    14.6826       63.30000
    14.6931       57.20000
    14.7036       46.00000
    14.7141       69.40000
    14.7247       62.30000
    14.7352       59.20000
    14.7457       59.20000
    14.7562       55.10000
    14.7667       65.40000
    14.7773       62.30000
    14.7878       64.30000
    14.7983       48.00000
    14.8088       55.10000
    14.8194       50.00000
    14.8299       61.30000
    14.8404       65.40000
    14.8509       49.00000
    14.8615       59.20000
    14.8720       55.10000
    14.8825       65.40000
    14.8930       47.00000
    14.9035       46.00000
    14.9141       47.00000
    14.9246       59.20000
    14.9351       58.20000
    14.9456       66.39999
    14.9562       48.00000
    14.9667       65.40000
    14.9772       56.20000
    14.9877       52.10000
    14.9982       51.10000
    15.0088       59.20000
    15.0193       50.00000
    15.0298       51.10000
    15.0403       65.40000
    15.0509       70.50000
    15.0614       55.10000
    15.0719       62.30000
    15.0824       65.40000
    15.0929       57.20000
    15.1035       68.40000
    15.1140       53.10000
    15.1245       63.30000
    15.1350       57.20000
    15.1456       54.10000
    15.1561       57.20000
    15.1666       55.10000
    15.1771       62.30000
    15.1877       50.00000
    15.1982       55.10000
    15.2087       62.30000
    15.2192       62.30000
    15.2297       55.10000
    15.2403       54.10000
    15.2508       51.10000
    15.2613       51.10000
    15.2718       42.90000
    15.2824       74.60000
    15.2929       40.80000
    15.3034       62.30000
    15.3139       71.50000
    15.3244       68.40000
    15.3350       49.00000
    15.3455       60.30000
    15.3560       69.40000
    15.3665       55.10000
    15.3771       58.20000
    15.3876       48.00000
    15.3981       68.40000
    15.4086       61.30000
    15.4192       51.10000
    15.4297       52.10000
    15.4402       62.30000
    15.4507       57.20000
    15.4612       59.20000
    15.4718       41.90000
    15.4823       63.30000
    15.4928       46.00000
    15.5033       64.30000
    15.5139       60.30000
    15.5244       54.10000
    15.5349       47.00000
    15.5454       61.30000
    15.5559       54.10000
    15.5665       51.10000
    15.5770       49.00000
    15.5875       48.00000
    15.5980       39.80000
    15.6086       49.00000
    15.6191       55.10000
    15.6296       52.10000
    15.6401       74.60000
    15.6506       61.30000
    15.6612       54.10000
    15.6717       52.10000
    15.6822       55.10000
    15.6927       56.20000
    15.7033       61.30000
    15.7138       52.10000
    15.7243       58.20000
    15.7348       68.40000
    15.7454       46.00000
    15.7559       44.90000
    15.7664       49.00000
    15.7769       68.40000
    15.7874       59.20000
    15.7980       62.30000
    15.8085       68.40000
    15.8190       54.10000
    15.8295       60.30000
    15.8401       61.30000
    15.8506       33.70000
    15.8611       52.10000
    15.8716       47.00000
    15.8821       67.40000
    15.8927       52.10000
    15.9032       62.30000
    15.9137       46.00000
    15.9242       53.10000
    15.9348       54.10000
    15.9453       44.90000
    15.9558       56.20000
    15.9663       69.40000
    15.9768       49.00000
    15.9874       52.10000
    15.9979       54.10000
    16.0084       44.90000
    16.0189       63.30000
    16.0295       34.70000
    16.0400       54.10000
    16.0505       50.00000
    16.0610       49.00000
    16.0716       51.10000
    16.0821       53.10000
    16.0926       65.40000
    16.1031       42.90000
    16.1136       47.00000
    16.1242       61.30000
    16.1347       50.00000
    16.1452       44.90000
    16.1557       46.00000
    16.1663       56.20000
    16.1768       65.40000
    16.1873       50.00000
    16.1978       52.10000
    16.2083       44.90000
    16.2189       42.90000
    16.2294       35.70000
    16.2399       61.30000
    16.2504       53.10000
    16.2610       59.20000
    16.2715       53.10000
    16.2820       57.20000
    16.2925       63.30000
    16.3031       62.30000
    16.3136       49.00000
    16.3241       54.10000
    16.3346       48.00000
    16.3451       54.10000
    16.3557       57.20000
    16.3662       71.50000
    16.3767       53.10000
    16.3872       44.90000
    16.3978       62.30000
    16.4083       36.80000
    16.4188       43.90000
    16.4293       57.20000
    16.4398       49.00000
    16.4504       52.10000
    16.4609       58.20000
    16.4714       60.30000
    16.4819       58.20000
    16.4925       47.00000
    16.5030       54.10000
    16.5135       57.20000
    16.5240       52.10000
    16.5345       50.00000
    16.5451       42.90000
    16.5556       43.90000
    16.5661       66.39999
    16.5766       56.20000
    16.5872       49.00000
    16.5977       57.20000
    16.6082       53.10000
    16.6187       62.30000
    16.6293       58.20000
    16.6398       67.40000
    16.6503       63.30000
    16.6608       60.30000
    16.6713       61.30000
    16.6819       46.00000
    16.6924       47.00000
    16.7029       50.00000
    16.7134       64.30000
    16.7240       63.30000
    16.7345       55.10000
    16.7450       63.30000
    16.7555       76.60000
    16.7660       57.20000
    16.7766       62.30000
    16.7871       61.30000
    16.7976       55.10000
    16.8081       66.39999
    16.8187       54.10000
    16.8292       44.90000
    16.8397       68.40000
    16.8502       55.10000
    16.8607       66.39999
    16.8713       64.30000
    16.8818       64.30000
    16.8923       79.70000
    16.9028       72.50000
    16.9134       67.40000
    16.9239       73.50000
    16.9344       81.70000
    16.9449       79.70000
    16.9555       84.80000
    16.9660       78.60000
    16.9765       86.80000
    16.9870      104.20000
    16.9975      107.20000
    17.0081      129.70001
    17.0186      135.80000
    17.0291      154.20001
    17.0396      161.39999
    17.0502      177.70000
    17.0607      185.89999
    17.0712      235.89999
    17.0817      298.20001
    17.0922      304.29999
    17.1028      397.30002
    17.1133      462.60001
    17.1238      492.19998
    17.1343      570.90002
    17.1449      684.20001
    17.1554      691.40002
    17.1659      786.39996
    17.1764      774.10004
    17.1870      830.30005
    17.1975      846.59998
    17.2080      752.70001
    17.2185      719.00000
    17.2290      654.59998
    17.2396      569.89996
    17.2501      502.50000
    17.2606      409.49997
    17.2711      361.50000
    17.2817      285.89999
    17.2922      261.39999
    17.3027      236.89999
    17.3132      182.79999
    17.3237      167.50000
    17.3343      163.39999
    17.3448      135.80000
    17.3553      113.39999
    17.3658      121.50000
    17.3764       89.90000
    17.3869      109.30000
    17.3974       90.90000
    17.4079       82.70000
